BEGIN IONS
TITLE=test_spectrum
CHARGE=2
PEPMASS=407.7552
173.478988647	3001.44970703
198.447570801	1303.07080078
284.445373535	1298.56689453
314.291412354	1426.40014648
389.848510742	2248.34667969
407.103759766	11111.2158203
407.19543457	13947.2597656
407.258056641	1527.75024414
407.660308838	1883.29931641
407.756011963	60133.8320312
407.8621521	6986.71826172
408.00100708	1454.18920898
408.087890625	2192.30859375
408.143585205	4835.10791016
408.199951172	4135.39355469
408.259521484	36130.421875
470.3465271	40105.4765625
471.350067139	13600.578125
541.125915527	1497.40661621
541.383361816	27908.3046875
542.386901855	9035.43359375
572.338745117	2692.03808594
601.304931641	13452.5683594
601.807922363	14479.2822266
602.31262207	2828.56494141
612.309692383	1878.95202637
656.405883789	4970.96728516
657.422973633	2748.58496094
672.430419922	21444.1132812
673.434265137	7720.19970703
685.425415039	37919.8867188
686.430725098	12434.6689453
743.454040527	1503.79455566
748.596252441	1441.89599609
756.49017334	2087.38427734
787.504638672	3939.59521484
798.484680176	20815.1386719
799.485839844	4873.26416016
813.493652344	1742.9921875
814.506652832	18807.1484375
815.258178711	2409.84204102
815.512207031	29527.2617188
816.517822266	13149.7216797
1026.49975586	1581.51855469
1070.52453613	1672.54125977
1201.60351562	21287.4316406
1202.61047363	14350.3164062
1203.6237793	7052.59863281
1204.60266113	2028.79943848
1223.58447266	4105.77734375
1598.97998047	1554.1628418
1861.9005127	1670.88513184
END IONS
